##TITLE= SPLICCO spectrum (File: \\phypcs\vansoelen.1$\Roaming Profile\My Documents\Senior Lab\Fourier Optics\SingleSlitFarField.jdx)
##JCAMP-DX= 4.24
##DATE= 25.2.2016
##TIME= 15:15:38
##DATA TYPE= INFRARED SPECTRUM
##OWNER= Public Domain
##RESOLUTION= 2.0
##DELTAX= 1.00000000
##XUNITS= ARBITRARY UNITS
##YUNITS= ARBITRARY UNITS
##APPLICATION= SPLICCO
$$SHOW_VERTICAL_FLIPPED= 0
$$SHOW_HORIZONTAL_FLIPPED= 0
##XFACTOR= 1.0
##YFACTOR= 0.000001
##FIRSTX= 1.000
##LASTX= 2048.000
##NPOINTS= 2048
##FIRSTY= 0.516060
##XYDATA= (X++(Y..Y))
1.000  516060 503654 526466 557656 567986 522362 506935 511024
9.000  537682 544289 543785 500633 499122 510582 500694 534401
17.000  559533 519523 521232 526024 526710 502891 492881 526832
25.000  517952 507377 514869 508888 510521 508506 508888 505104
33.000  523872 515373 504417 552986 525078 529549 534843 523872
41.000  509010 506492 522621 523506 527473 515434 511467 504600
49.000  522362 529793 522056 516823 515373 510704 517006 511284
57.000  521797 565835 551537 519905 537743 552162 529793 529732
65.000  521858 523567 547127 523247 537605 524315 528725 532570
73.000  544487 525825 538872 547508 583611 577492 540260 540138
81.000  542397 560799 580712 547310 534523 561181 586633 565529
89.000  570061 561303 563134 550209 563439 550911 536293 539055
97.000  561562 557839 587579 579003 570946 551979 534401 551979
105.000  554375 572335 564705 584740 581094 583352 570061 587014
113.000  575478 565392 587823 567788 550591 561425 550087 589150
121.000  599176 577874 616876 575478 556633 556206 558785 557137
129.000  544792 555001 563820 568169 591042 603006 600808 579201
137.000  564080 589028 586816 567986 556206 569680 583291 593499
145.000  597848 610131 611963 596200 606912 607354 569558 580148
153.000  611902 621667 607492 589913 607614 612146 616250 596643
161.000  586312 575036 584359 579385 594384 605279 600930 618204
169.000  620782 604455 596276 598916 602319 599420 595834 582528
177.000  580453 601129 601632 598352 592370 605783 591226 579827
185.000  609689 606103 600183 610894 598794 630167 653482 643656
193.000  616250 613153 631876 640314 613153 627328 619211 600808
201.000  624490 627649 624063 611200 601052 608438 614984 597726
209.000  613977 614801 623361 650705 692988 674265 630228 633630
217.000  649698 645410 631296 642206 627267 623300 666834 695567
225.000  680262 643900 648249 667093 629663 615869 621789 657068
233.000  641702 620721 612771 624567 623804 647501 669916 659342
241.000  630792 647119 660471 630991 661738 693354 656244 620340
249.000  631677 655497 661539 666010 666590 664881 653421 642511
257.000  634958 643457 628595 644602 645349 631052 653421 661676
265.000  706218 772564 729655 669352 675349 668101 655878 662806
273.000  643961 664881 677103 663248 680888 677363 698588 698649
281.000  677668 700419 697016 675654 716289 727824 682780 669611
289.000  681330 683405 669413 675974 706279 681956 701243 700038
297.000  681773 707225 714213 698970 695246 704951 688075 716166
305.000  728587 737972 728450 718944 743068 766063 759075 762355
313.000  733501 717936 720897 703379 696894 700419 711192 724101
321.000  745525 791454 782955 720576 734004 721400 717738 734508
329.000  789135 816845 782955 744716 762661 754345 736583 746532
337.000  774319 781567 726497 713649 747112 747417 730846 730098
345.000  714915 722468 745220 765621 780437 763363 755992 778164
353.000  760265 767513 767330 750942 746028 762981 774639 771557
361.000  747981 748744 764049 786037 770290 761791 762294 765438
369.000  741878 750438 746227 767071 769848 745281 764812 738033
377.000  737468 725368 723476 744335 728145 728831 758190 781124
385.000  788250 771984 744274 752025 781063 777843 761791 754283
393.000  731914 745906 748546 753475 733180 745342 748622 748241
401.000  744899 797131 795117 772808 739223 732356 762417 755428
409.000  741252 744335 758632 756679 763607 745784 746593 742381
417.000  745845 776028 763424 757183 758754 767391 800915 821896
425.000  831845 834683 747859 744014 753093 744838 769970 777721
433.000  769222 771114 782391 793408 782635 771419 773876 796810
441.000  793163 793606 765941 776974 805630 864606 884260 793286
449.000  751766 798138 797131 777782 785595 788433 789883 799404
457.000  775463 799465 785351 777157 779430 777416 781567 796246
465.000  802670 776150 769161 778103 781750 785229 808087 806210
473.000  782513 770290 790951 815335 808224 800778 843945 890318
481.000  840161 785351 810040 829068 814328 818234 822262 805065
489.000  770107 785976 840604 841794 830777 851941 841672 816601
497.000  797451 794995 804501 817608 837888 818997 799771 824917
505.000  825360 806775 805127 808529 795559 782009 775204 810238
513.000  813260 810681 839093 869642 869901 823407 803433 863218
521.000  867887 843183 809353 804943 817608 838086 852506 840665
529.000  831403 810299 790447 797894 810360 849485 831525 806775
537.000  791775 805828 820889 813824 825162 863538 860257 838269
545.000  845899 842877 814831 801281 808163 817730 844632 855603
553.000  845777 830395 863981 871976 866117 843244 839093 839917
561.000  855542 854535 832288 818936 826169 814267 840543 854840
569.000  846021 848035 850110 861829 868009 838910 831464 856992
577.000  877149 881803 890119 864606 846784 812191 812069 816037
585.000  822644 818356 829068 837079 840726 852002 863096 870588
593.000  888990 912870 898634 875135 840985 843503 854840 843320
601.000  847852 856351 893400 865873 845197 847287 863721 847287
609.000  841870 832028 853833 840039 857801 881803 846341 819180
617.000  823971 830579 853452 851636 859815 884077 870466 864805
625.000  858747 843747 844831 847089 861081 893278 880354 873868
633.000  860135 849103 869016 873121 874250 846204 844007 872739
641.000  867948 836636 845639 865552 858365 855909 878980 887098
649.000  834241 836820 842175 843884 845899 855222 855039 859571
657.000  844953 852948 863218 837384 853208 859571 864484 842877
665.000  856549 877531 862973 839536 863035 878660 874876 869642
673.000  870405 875638 855344 854962 860318 865735 832974 856672
681.000  881559 904493 890440 862912 849179 851255 856046 901716
689.000  909910 875577 851697 851056 850492 823651 848294 835934
697.000  839978 861768 865171 852948 872861 884458 883756 853650
705.000  860074 877454 873426 853589 855100 877653 886655 863920
713.000  847028 875700 878477 870725 874937 893461 908644 894789
721.000  872358 847348 839917 853955 895170 889051 877393 858060
729.000  863218 877653 868131 876203 891126 947966 959060 921568
737.000  919554 939330 930952 911482 882688 875379 890562 915648
745.000  914442 899076 917219 950926 917601 874128 859754 882810
753.000  874494 864805 870908 892149 870847 891447 919737 932585
761.000  943556 934920 911741 906248 911985 899259 926359 902540
769.000  890257 910856 927046 910353 888487 901152 956466 952056
777.000  927306 893018 904051 908781 899137 899458 914824 929686
785.000  925215 928618 954833 956786 945571 918410 883695 894789
793.000  889372 893156 886976 893781 892210 877393 889311 891767
801.000  899824 889433 874250 873548 871732 911039 935744 915327
809.000  880994 868207 879545 925658 956527 959746 928053 869520
817.000  891706 938261 922377 888166 881437 890562 883192 878599
825.000  885709 889875 896681 899458 885267 905745 877531 838086
833.000  837262 897245 934416 860578 878599 902220 908461 898191
841.000  884260 896803 918989 908842 883695 879163 885526 898939
849.000  885206 874189 900205 927809 932845 896742 881940 938445
857.000  959487 957167 951995 895414 902601 866376 871229 899641
865.000  885206 883833 895170 891889 888166 885526 903791 936308
873.000  960128 924208 892072 885267 881940 892011 895170 900648
881.000  906248 887296 878660 894102 896925 899458 880994 873182
889.000  882505 891325 904371 936186 941283 915449 883573 890501
897.000  887739 903608 921751 918913 894285 895735 894285 881437
905.000  857923 868131 884458 897932 870283 868635 888548 921751
913.000  908339 907011 903547 907515 928496 903929 884077 905378
921.000  868894 902159 929884 951049 960311 964538 938765 917463
929.000  919417 900968 914320 899580 898817 929503 938887 923460
937.000  916517 885969 911985 926359 917341 917662 909224 896055
945.000  906324 881361 884458 887037 867261 890882 901655 881742
953.000  905821 907896 909590 901915 946257 950362 927428 888929
961.000  871229 885145 880048 896925 892774 869398 863660 868513
969.000  880109 902098 904112 879987 864927 877775 891065 927733
977.000  925032 953444 964599 951430 915709 877531 881300 906507
985.000  900587 882627 877088 860257 902540 914000 896864 874494
993.000  910231 915892 945632 926802 921507 908201 923018 906950
1001.000  889555 917906 948088 961577 970901 968062 935545 935744
1009.000  945571 903791 886793 942427 938384 889494 901335 913557
1017.000  908644 912993 894972 887159 882749 908842 951873 967818
1025.000  965606 953505 918348 892210 880354 905882 906065 853452
1033.000  844251 868894 910658 912809 916716 897688 892210 919233
1041.000  913313 898512 898435 901029 920561 903608 891264 917723
1049.000  910978 890501 897428 902845 888868 882810 875501 902983
1057.000  932661 915892 881879 888364 876203 883756 882124 884016
1065.000  896177 898130 885206 913191 920943 914641 897306 875318
1073.000  880231 900709 894346 879484 874494 882749 890882 881940
1081.000  899641 889250 888105 896177 902922 911360 937438 953322
1089.000  944243 925978 922011 921065 913817 910734 918791 904798
1097.000  909529 895109 775082 844251 772304 822140 914885 886091
1105.000  906889 927550 936430 903105 880674 875318 884901 904112
1113.000  914320 872800 902281 872922 877775 890257 905561 891065
1121.000  932784 935042 888105 955580 900205 915266 863477 885267
1129.000  891386 846402 872541 872419 885908 873548 880994 886152
1137.000  939208 919737 873868 842816 876585 882246 879987 871473
1145.000  883070 888487 936690 935423 936873 944121 927306 865995
1153.000  898252 935805 903486 876203 855466 867261 870283 871168
1161.000  863782 866880 871534 881361 905500 908583 919859 890821
1169.000  885023 843686 868711 910536 906248 913191 878843 865308
1177.000  873304 866437 891645 900022 877836 877393 871412 863782
1185.000  862211 820447 836957 891828 899382 933852 962203 939528
1193.000  875883 831219 850110 887739 869398 839841 867383 905180
1201.000  941222 951247 958297 927992 864988 886717 895979 854779
1209.000  855344 850690 839841 839475 832791 841611 815335 818356
1217.000  870847 919356 881559 885969 886091 862973 891828 845777
1225.000  868635 859510 858365 850873 850812 863218 864805 859632
1233.000  850873 845014 827939 835873 842175 886213 870160 841290
1241.000  829388 849103 842618 857053 863538 874998 861203 873868
1249.000  928435 926100 915266 904112 878904 854779 819943 825299
1257.000  818616 818112 831845 833737 847791 857679 849683 889173
1265.000  944441 963271 915205 853894 837460 857419 889814 887541
1273.000  846646 820630 830579 829144 819562 828198 835812 840482
1281.000  852887 871915 871412 874433 894102 895033 851636 847791
1289.000  848096 868451 868711 845014 847409 864606 831662 809674
1297.000  814648 825299 791714 791515 820752 816220 828122 860074
1305.000  856992 878095 936491 951171 931715 855725 797192 782635
1313.000  827115 838834 858243 849362 883070 908140 852323 796444
1321.000  804943 825925 845075 844190 832410 816723 852948 865674
1329.000  865674 831403 817349 825741 800854 816845 820248 822842
1337.000  858365 876142 858945 809170 848599 871534 845014 811245
1345.000  791653 762478 781887 796688 846845 899763 911543 880170
1353.000  901777 941725 937575 910093 869779 862531 888609 861081
1361.000  794048 758251 751766 767330 749813 773373 852826 862714
1369.000  807904 790386 786861 795498 801281 784908 773815 749629
1377.000  748241 761715 756237 768276 807782 790768 774578 778667
1385.000  817349 829266 853208 844068 838773 787609 785732 782330
1393.000  767513 787991 829831 794232 780941 797009 788754 753841
1401.000  780560 790890 814023 778225 798764 815030 799526 794293
1409.000  765316 786037 793408 807522 892774 930952 914564 844831
1417.000  799908 786800 761852 733440 752025 772365 780880 784649
1425.000  776714 774761 842435 888487 861585 811810 826367 783901
1433.000  756115 744960 794796 812939 804882 841428 865613 841992
1441.000  796002 773632 776913 778042 765056 764553 797131 805889
1449.000  802868 868390 894285 896559 865613 779995 765819 783398
1457.000  765255 789562 837323 845639 806454 747173 727885 765255
1465.000  797070 778866 788189 775829 769466 787365 824093 855664
1473.000  856992 801098 760082 781826 797131 765880 747676 743007
1481.000  794552 847089 827115 820508 810986 756557 714091 710307
1489.000  727580 762600 753154 766201 785473 788876 755672 735637
1497.000  756359 758190 744640 722407 735698 784283 820187 780437
1505.000  778728 819058 816098 758754 719691 726695 761852 778866
1513.000  776272 773006 774700 765194 774883 787869 765438 732494
1521.000  686747 676539 695750 712016 707728 709239 726878 727000
1529.000  737911 781445 774639 709681 709422 719066 704005 709239
1537.000  739299 773250 819119 840726 776531 714534 680323 681895
1545.000  699214 676722 670054 702189 711879 707850 721400 779552
1553.000  795864 758190 737712 756359 778164 785656 807522 790325
1561.000  768596 728831 698786 712382 724925 691279 674586 676539
1569.000  665079 689021 673014 687937 715922 710063 695689 684794
1577.000  691599 719447 686243 675471 684092 702937 695384 691905
1585.000  698847 700236 696955 715419 772243 779736 777218 741618
1593.000  693354 702113 711192 731914 684473 690974 746166 752452
1601.000  698405 670862 666086 669794 669489 720958 760082 779049
1609.000  847653 876447 843183 767071 708979 679056 688441 690653
1617.000  670359 708049 757625 726253 707972 717494 682078 662424
1625.000  702433 733745 724864 712382 691599 689326 670420 707347
1633.000  718181 741557 823849 857053 804180 762417 763103 745403
1641.000  694743 665888 664759 688258 681452 664194 668909 673456
1649.000  698405 733241 786037 802105 794613 737270 650644 614419
1657.000  638239 647241 621911 629159 668787 691035 713908 787365
1665.000  828381 810864 728084 675471 661860 677164 647806 628336
1673.000  653665 696833 680323 644724 648065 639871 648126 624750
1681.000  611139 618005 632379 601129 609369 633066 641565 636209
1689.000  631296 675974 746532 784847 800854 732860 633890 604013
1697.000  656946 678675 709620 709056 664255 651590 672510 642893
1705.000  610131 667093 709559 712581 653482 641199 639993 604592
1713.000  598413 606103 604776 598596 620523 611261 661478 715983
1721.000  692484 634760 618707 628778 604089 593820 626642 634332
1729.000  605661 582101 591042 618005 614801 611825 654367 661417
1737.000  653162 670054 658640 670557 644220 607858 596200 608499
1745.000  619134 624246 614480 612848 605844 586251 596398 621408
1753.000  602441 604455 599801 615426 630167 644663 644785 640558
1761.000  608117 596643 595773 571129 586007 577691 593438 616754
1769.000  590661 581338 606607 584237 562493 569375 560234 577874
1777.000  582726 636591 637857 652277 688639 678492 638544 628717
1785.000  598413 575295 555764 551857 562874 590600 588204 595269
1793.000  585305 561562 567040 566216 556832 572762 564705 554619
1801.000  559029 576745 601495 598474 567849 603509 592935 569802
1809.000  560860 560616 567421 587075 585870 576302 554116 558907
1817.000  543785 575738 597283 591363 569375 579201 611581 599679
1825.000  546684 545799 560540 590157 595391 574151 589776 580712
1833.000  530556 526405 554940 562569 543724 545555 562310 577752
1841.000  557457 529930 532326 549401 557717 567483 589715 612588
1849.000  609246 610391 586953 548012 554436 543465 544670 548455
1857.000  552361 529045 531883 537178 581338 607232 579888 538689
1865.000  533196 527916 562188 561364 559411 539253 531822 533272
1873.000  537865 533836 535149 529793 533775 523308 517708 521293
1881.000  583291 586877 547066 533134 535286 542656 528984 546364
1889.000  582909 595010 626764 651834 629037 601556 554940 535088
1897.000  547508 572701 552925 544411 541268 541145 524818 521797
1905.000  515312 517509 523064 542458 574151 568551 540001 563195
1913.000  563073 546364 520607 499565 511650 521049 566720 607995
1921.000  615106 603448 597528 600930 611261 590539 565774 542961
1929.000  522240 518654 537743 539131 540199 538551 549767 577935
1937.000  543465 502647 514549 554757 549645 553307 581658 570626
1945.000  546303 511345 502388 533073 552101 595330 586694 549462
1953.000  524071 514427 533012 548393 589211 595269 514305 490043
1961.000  551033 537605 498741 496467 499687 518013 527336 601998
1969.000  655054 588326 522682 501136 509575 510902 516563 490669
1977.000  508888 516136 526771 507179 523628 531380 536537 527031
1985.000  520286 535652 522560 506797 488853 500816 515434 525520
1993.000  522682 503715 494392 498985 509834 526527 538872 570382
2001.000  605722 601312 543404 526405 590478 591424 537926 507942
2009.000  509132 504539 503593 500816 505043 494010 527031 548256
2017.000  527718 508690 507118 510017 533073 493705 485389 501441
2025.000  493202 507301 507621 524696 532509 519966 508003 498619
2033.000  506553 498924 502464 507942 503089 491752 487647 513038
2041.000  543907 552727 524956 516136 512230 511024 484306 485816
##END=
