##TITLE= SPLICCO spectrum (File: \\phypcs\vansoelen.1$\Roaming Profile\My Documents\Senior Lab\Fourier Optics\Activity 2.3\DoubleSlitC2_5_Lens.jdx)
##JCAMP-DX= 4.24
##DATE= 3.3.2016
##TIME= 13:27:28
##DATA TYPE= INFRARED SPECTRUM
##OWNER= Public Domain
##RESOLUTION= 2.0
##DELTAX= 1.00000000
##XUNITS= ARBITRARY UNITS
##YUNITS= ARBITRARY UNITS
##APPLICATION= SPLICCO
$$SHOW_VERTICAL_FLIPPED= 0
$$SHOW_HORIZONTAL_FLIPPED= 0
##XFACTOR= 1.0
##YFACTOR= 0.000001
##FIRSTX= 1.000
##LASTX= 2048.000
##NPOINTS= 2048
##FIRSTY= 0.008408
##XYDATA= (X++(Y..Y))
1.000  8407 8209 8026 9918 8529 9155 7080 6958
9.000  8346 9033 8209 9353 8773 8850 7644 8087
17.000  8209 8529 7965 7080 7522 7522 7766 9475
25.000  8407 8850 8468 7904 9536 9414 8712 9475
33.000  8850 8773 8468 9292 8651 9353 9796 9033
41.000  10101 9536 9475 7904 10360 8651 8773 8911
49.000  8590 8209 9796 7965 8712 8712 8529 8712
57.000  8651 8407 8651 8407 8468 8346 9292 7766
65.000  8529 9796 9658 9094 10223 8712 8529 8087
73.000  7766 9353 8407 8773 7904 7766 7904 8911
81.000  8850 9536 8590 8468 10162 7843 8148 8209
89.000  9796 7965 8346 8773 10162 8346 8911 10299
97.000  8773 8972 9353 8529 7583 9094 8911 9033
105.000  8850 9658 10040 9857 7400 8270 9475 9475
113.000  8972 9536 8529 9475 9353 9414 9918 9353
121.000  8651 8773 8850 9155 7705 8346 9353 8148
129.000  9475 8651 8529 9857 8773 9979 8529 8712
137.000  9094 9155 8712 7904 9094 8148 10162 9597
145.000  8407 8270 7263 9536 7965 8911 8972 8850
153.000  8590 9353 9414 9536 8407 8651 7400 8270
161.000  8468 8972 8590 8346 9292 8270 7705 9414
169.000  9094 9033 9597 10299 9536 7461 8270 8270
177.000  9475 9094 9216 8712 8529 9094 9094 10223
185.000  8346 8468 9292 8773 9719 9033 8712 9536
193.000  7766 8972 8468 10543 8773 9216 8148 9979
201.000  8972 8972 9857 9155 9475 9719 10421 7461
209.000  8911 8468 9796 9597 8087 8911 8529 9918
217.000  8529 9414 9979 9216 8407 8850 9292 8529
225.000  9033 8407 8270 8346 7965 8087 9216 10101
233.000  7965 9094 8850 9292 8972 8529 9414 10101
241.000  9475 8850 8590 8346 9918 7080 9597 8712
249.000  8911 10223 10162 9658 7583 9597 8773 8712
257.000  8407 8972 8087 9536 8468 8087 8346 8651
265.000  9094 9094 9094 9094 9216 8590 10299 9857
273.000  9155 10727 8468 9658 10421 8270 8590 9216
281.000  9216 7461 9979 8972 9796 8590 9033 9292
289.000  8468 8148 9094 8773 8911 8911 10803 8773
297.000  8911 8346 8712 8850 9979 9796 8911 10101
305.000  9033 8911 10360 10543 9216 9536 9353 8911
313.000  10223 9216 9155 9536 9155 8346 9658 8651
321.000  8911 9033 9353 9979 8972 9796 7583 10040
329.000  8651 10223 9597 8087 8346 8850 9292 9475
337.000  10803 8270 8346 8850 8850 10223 7705 9979
345.000  10101 8850 9796 9536 9292 9857 8407 9475
353.000  8850 9414 8087 8148 9918 9796 8972 9155
361.000  8911 8712 9658 8270 8850 9475 8911 9094
369.000  8712 10040 9094 9475 9414 10543 9857 8087
377.000  9857 8712 8590 9658 9857 9033 8529 9979
385.000  10727 8972 9658 9155 8911 9094 8850 8972
393.000  9292 9918 9216 8911 8972 9475 8850 8270
401.000  8346 8850 7843 8148 8407 10421 8651 10543
409.000  8651 9094 8529 9536 8651 8148 9216 9033
417.000  9033 9155 9155 9658 8590 8651 7843 8773
425.000  10223 9216 8590 9155 10162 9414 9475 9597
433.000  8850 8529 10040 9353 9475 8972 9216 7904
441.000  9475 9033 10040 10360 7705 8468 8407 10162
449.000  8209 9536 9536 8407 8972 9857 8407 8911
457.000  8026 9597 8972 9353 8270 8590 9292 8972
465.000  9033 8850 9719 10040 8346 10421 9796 9033
473.000  9475 10666 9719 10040 8712 8590 8651 9353
481.000  9353 8911 9857 9094 9414 10040 8651 9414
489.000  8468 10223 9918 8026 8346 10803 9979 10360
497.000  9414 8529 9918 8712 8911 8651 9353 10727
505.000  9597 10162 8209 10223 9536 9918 9155 9216
513.000  8850 9292 8590 9597 10803 9918 9918 8651
521.000  9216 9719 8209 11047 9353 9536 8209 9796
529.000  9414 9353 8468 9155 10605 9292 8270 9475
537.000  9536 10482 8911 8972 8773 9033 9094 8590
545.000  8468 9414 9475 10299 10299 9155 8712 10727
553.000  7263 9796 9719 8911 8087 9033 9216 8651
561.000  9796 9475 9475 9796 8407 8773 8773 10727
569.000  8712 10101 9719 9216 9292 9094 9719 9033
577.000  10360 9796 9597 7766 9918 8911 9597 8773
585.000  9033 9216 8407 8270 8850 9719 8911 9292
593.000  9094 9918 9094 9597 10040 9292 10223 9979
601.000  8911 9292 10040 9536 9033 8972 8590 9536
609.000  8972 8911 9414 9475 9918 10162 9597 8209
617.000  8468 9216 8911 8087 9536 8468 9918 9918
625.000  8911 9658 8590 10040 10299 9216 8590 8590
633.000  9918 9475 9155 9033 9353 9353 8529 7583
641.000  9155 9979 9536 8972 10223 9719 10360 10864
649.000  9597 9979 9414 9857 9216 10666 8651 9979
657.000  9796 9216 8773 10299 8850 9536 10543 8911
665.000  8148 10040 9414 9292 9033 9155 8712 8026
673.000  10666 9414 8972 9658 9033 9857 9857 8972
681.000  8911 8209 9719 9292 10299 9658 8850 9918
689.000  9597 8911 10040 9857 9597 10605 7141 8346
697.000  10482 10299 9216 9353 10605 11108 9216 10482
705.000  10223 9094 9597 10543 10040 9719 10803 8468
713.000  9033 9597 8651 10803 9155 10223 9475 9719
721.000  10360 9658 10162 8651 8972 8850 10040 9216
729.000  8346 9918 9353 8529 9475 9658 10040 8148
737.000  9658 7904 10040 9292 9979 9353 9033 9597
745.000  9033 9719 9918 7904 8972 9918 8850 8911
753.000  9475 9292 8346 8773 8972 9033 10162 8773
761.000  9857 8026 8911 9597 8148 9857 8850 9979
769.000  10040 8407 10101 8972 9094 9216 9918 8712
777.000  9094 8209 9597 9597 10101 9155 9475 8590
785.000  9033 9475 9475 9857 9353 9597 9979 10543
793.000  10040 9353 7766 9796 10101 9719 8468 8773
801.000  8651 9155 10040 10299 9094 9719 9918 9918
809.000  9918 10727 9292 9292 9918 9475 9857 8651
817.000  10162 10223 7766 8972 7843 9033 9857 9033
825.000  9216 9796 9597 10223 9536 9597 10101 9033
833.000  10040 9475 9475 9796 10299 7965 8346 10421
841.000  8346 10543 9475 8529 10101 10421 10299 8850
849.000  10162 9216 9979 9979 9033 9094 9796 9475
857.000  10040 9719 10101 8850 9658 9094 10666 8911
865.000  10223 9292 8911 8972 9475 9292 7904 9658
873.000  8651 9796 9094 8850 10101 8590 10421 8209
881.000  10162 9719 9475 8712 9033 9597 11551 9796
889.000  9536 8850 10421 9216 10605 10803 9597 9475
897.000  10803 9597 8773 9155 9658 10727 9719 9918
905.000  9292 9979 9918 10299 10299 9979 9658 9979
913.000  9979 11047 10101 10223 9414 10803 11245 9918
921.000  9918 11490 9216 10421 9353 9658 10040 8529
929.000  10482 11169 11169 9414 12314 9857 9094 9475
937.000  9033 9918 10543 9597 9719 10162 9918 9857
945.000  9536 9796 9536 8972 10360 9094 10162 9658
953.000  10803 8407 9155 9796 9414 8773 9292 10299
961.000  10986 10162 10543 10040 9796 9597 11169 9857
969.000  9353 10162 9857 11932 11749 11490 9414 10101
977.000  10727 10162 10986 10727 11047 11551 11490 9658
985.000  9597 10360 10605 10864 12115 11367 11306 11551
993.000  12054 11367 11673 9414 11306 10925 10666 11551
1001.000  9857 11429 10040 10040 10482 9216 10727 10360
1009.000  9536 9094 9719 9658 8850 8712 9094 9353
1017.000  9292 9536 8911 7522 9216 9292 10223 10727
1025.000  10162 9658 10223 9216 9292 10299 9155 10727
1033.000  9857 10482 11993 9979 9719 10482 9353 10925
1041.000  10482 10605 9216 9536 10605 9216 8407 9292
1049.000  9094 7766 10421 10299 10101 7843 10864 9597
1057.000  9857 9796 8468 9292 10101 9292 9094 8972
1065.000  9796 10543 9857 10360 10727 9857 9536 10864
1073.000  11169 10727 10543 10986 10101 10421 10482 11810
1081.000  11245 11932 11245 11169 11673 10727 11169 11047
1089.000  10421 9857 10482 10864 11612 11490 9918 11871
1097.000  10666 10360 8850 10803 10360 10925 11306 9536
1105.000  10360 11306 9918 10986 11673 10727 11108 12054
1113.000  12878 13000 14572 15213 15075 17792 19058 19562
1121.000  22140 23712 24155 26489 27679 30075 32349 33539
1129.000  35873 39520 41916 43869 46021 46646 50232 49790
1137.000  54520 55970 57358 59311 60074 62531 63279 61829
1145.000  63279 64789 65491 65934 63218 66056 57984 59311
1153.000  55909 55909 54215 51377 46402 44373 43503 37140
1161.000  32730 29327 27557 23147 20126 19989 16281 13702
1169.000  12939 10986 10666 12054 13763 14709 18036 22018
1177.000  24979 31143 38269 45822 54139 64728 79606 87983
1185.000  103547 119356 142351 157854 181094 200381 214236 241199
1193.000  270313 290028 310826 330479 353734 375783 389837 422095
1201.000  444464 462790 478797 496635 514839 520195 544960 549797
1209.000  570916 582253 572671 566689 582314 573495 564736 580422
1217.000  566628 562462 536888 523216 506401 484275 471869 447364
1225.000  429785 400610 365697 331807 306416 276676 251285 217074
1233.000  193072 159685 124269 105561 77653 62272 46326 29510
1241.000  21576 14709 9796 11551 16220 23208 36057 51117
1249.000  74753 93644 126604 159868 199313 240955 285313 335896
1257.000  378179 428397 464682 530647 576897 626169 655405 699320
1265.000  732204 790295 813977 854428 867154 907484 919325 940932
1273.000  937163 957137 959960 969985 975524 967086 972564 967711
1281.000  977920 976348 955367 964629 944716 936781 928343 894132
1289.000  879514 862058 831815 800442 760494 727733 679468 631586
1297.000  601403 557991 494804 453025 404257 353475 300556 256137
1305.000  217456 180224 143617 109086 77515 60257 38651 27115
1313.000  16723 10986 9918 11749 17853 25482 33981 50553
1321.000  66239 88105 114946 137315 163271 196276 228549 251346
1329.000  291615 324620 345418 370046 401800 421972 448935 473060
1337.000  490455 509300 533165 539406 561333 554909 565178 562462
1345.000  561333 561333 560830 563790 554650 537331 518867 504753
1353.000  494743 489127 459708 447669 417425 390844 373769 356191
1361.000  334203 304524 280903 257465 236362 213427 192446 169817
1369.000  147203 128236 112169 95475 82429 68818 59372 46707
1377.000  38071 31464 25101 21515 16403 13763 12054 11047
1385.000  10727 10482 10360 11749 13199 14328 18112 18478
1393.000  21133 23208 28061 28122 32913 38651 39719 44449
1401.000  46906 49225 50232 54337 55909 54459 54077 58808
1409.000  56229 56534 54139 59250 50873 49927 51239 48416
1417.000  48661 47837 45258 43564 45761 42679 42862 39398
1425.000  38452 36942 34683 30960 30258 27878 24658 23590
1433.000  21438 19058 19302 18356 18036 16906 16723 13702
1441.000  13504 12680 11169 10727 12497 11490 9292 8850
1449.000  9796 9216 7644 8712 9033 9597 8972 8911
1457.000  8850 8911 9155 8407 8468 7522 7904 8590
1465.000  8529 8529 8972 8407 8712 8346 8651 8087
1473.000  9536 7843 8712 9475 9597 10543 9719 9719
1481.000  9918 8850 8590 9857 9857 10040 9918 9155
1489.000  9597 10162 9536 8209 9094 8529 8346 9155
1497.000  9216 9216 9597 9292 9658 8346 8087 9597
1505.000  9719 8590 9033 10040 9033 9292 9094 8346
1513.000  8148 8712 8773 8346 9033 9597 8087 8209
1521.000  9414 9033 9414 7904 8270 8026 7843 8712
1529.000  8209 7843 8712 9155 8087 8468 8407 7522
1537.000  9094 8346 7705 8468 9094 9216 9094 9796
1545.000  10360 10299 7965 10543 8590 9155 9796 10666
1553.000  9353 9979 11047 10223 8209 11047 11810 10223
1561.000  9536 11169 11429 10543 10223 10543 11108 11993
1569.000  10543 10666 12436 11993 10299 11429 9216 12314
1577.000  11306 10421 10040 8972 9094 10666 8972 10162
1585.000  10101 8148 9414 9292 8911 9796 8270 8270
1593.000  8468 8407 8468 8590 7263 7904 8407 8346
1601.000  8911 7965 6897 7019 8209 8209 7583 7339
1609.000  8529 8712 9536 8407 8651 8972 8407 9033
1617.000  9094 9033 8972 9033 9216 10162 9216 9536
1625.000  7766 9597 9857 9979 10925 9796 10482 9216
1633.000  8712 9796 9979 10605 10803 10986 9719 10299
1641.000  9796 10925 11169 9475 10482 9979 9597 9658
1649.000  9719 10803 9918 9658 10360 9979 9292 8270
1657.000  9414 9155 8087 9353 8972 8590 8972 8407
1665.000  7400 7583 7522 8026 8209 7400 8026 7644
1673.000  7461 6637 8468 7400 6637 8026 8346 7461
1681.000  7766 7522 8972 8850 7522 8773 9033 7263
1689.000  8148 8529 8026 7202 8407 8209 7904 6698
1697.000  8087 8590 7461 7400 6958 8972 9094 6698
1705.000  7705 7583 7080 8148 8148 6820 8346 7843
1713.000  7202 7522 7019 8148 7904 9658 6012 8087
1721.000  6820 7080 8087 7705 8209 9292 6256 7904
1729.000  8270 8407 8529 7522 8209 9353 7263 7705
1737.000  6576 8087 7461 7766 7904 7080 7461 6759
1745.000  6195 7766 7965 7400 6958 7461 8850 7522
1753.000  7461 7766 7339 8148 7141 7400 8209 8468
1761.000  8087 8590 8148 8590 6897 8529 7583 7965
1769.000  7705 8773 8590 6820 8911 7965 7843 7904
1777.000  7339 8087 7766 7766 7766 6958 7904 8087
1785.000  7583 6195 7705 8468 8026 7339 8712 7019
1793.000  7705 7843 7461 7766 6759 7965 7263 7904
1801.000  8712 6454 7202 7339 5889 6393 6958 6195
1809.000  7904 7263 6637 8346 7141 7080 6576 7202
1817.000  6897 7019 4623 7583 7141 6698 7080 7705
1825.000  6759 7019 8087 5951 6637 7141 7339 5386
1833.000  7400 8026 6820 7461 7965 6393 6012 7904
1841.000  6759 7965 6515 6317 7019 7644 7019 7644
1849.000  7843 6073 7400 6515 7644 7080 7202 7583
1857.000  5951 7400 7461 6759 5249 6073 7644 7400
1865.000  6820 7461 7843 8026 8209 6454 6759 6134
1873.000  6393 7400 6759 7019 6820 7522 7019 6576
1881.000  5951 6958 7019 5630 7904 7019 6256 6897
1889.000  7766 6698 7080 5630 6897 6073 7705 7141
1897.000  6958 7141 5889 6958 6195 7263 5951 5813
1905.000  8026 6134 5752 8468 5508 7339 6958 6576
1913.000  6073 6637 6195 7202 7141 7904 6759 7843
1921.000  6698 7019 7644 5813 7019 6698 6820 6317
1929.000  6134 5691 6073 5889 5691 6454 6958 6759
1937.000  6317 7019 6195 6759 7904 6317 6317 6393
1945.000  6393 6134 7843 6897 6576 5889 6256 7263
1953.000  7019 5951 5630 6393 6256 7019 7141 7843
1961.000  6820 6393 5691 6317 6454 6515 6195 5752
1969.000  7583 6317 7263 5951 5386 6317 6256 6576
1977.000  6073 5508 6012 6698 6515 5447 5889 6698
1985.000  6195 7461 6637 6515 6454 6134 6012 6012
1993.000  6698 6637 6195 6012 6317 6820 6012 6698
2001.000  5508 4943 6454 6134 6515 4119 8712 6820
2009.000  5951 6515 5752 5951 5386 7080 7705 6256
2017.000  4745 6637 5630 6256 6317 6759 6317 6195
2025.000  6134 5813 6317 6515 7019 5951 6195 7522
2033.000  6637 5889 6393 5447 6393 5447 6256 6073
2041.000  5691 5004 5508 5951 6393 6256 6012 5065
##END=
